# standard 1% resistor (E96 rating)
# includes <10 ohm resistors available in 0603 package from digikey
#resistance,tolerance
0.02,0.01
0.025,0.01
0.03,0.01
0.05,0.01
0.051,0.01
0.056,0.01
0.068,0.01
0.075,0.01
0.082,0.01
0.091,0.01
0.1,0.01
0.11,0.01
0.12,0.01
0.13,0.01
0.15,0.01
0.18,0.01
0.2,0.01
0.22,0.01
0.24,0.01
0.25,0.01
0.27,0.01
0.3,0.01
0.33,0.01
0.36,0.01
0.39,0.01
0.43,0.01
0.47,0.01
0.5,0.01
0.51,0.01
0.56,0.01
0.62,0.01
0.68,0.01
0.75,0.01
0.82,0.01
0.91,0.01
1,0.01
4.7,0.01
10,0.01
10.2,0.01
10.5,0.01
10.7,0.01
11,0.01
11.3,0.01
11.5,0.01
11.8,0.01
12.1,0.01
12.4,0.01
12.7,0.01
13,0.01
13.3,0.01
13.7,0.01
14,0.01
14.3,0.01
14.7,0.01
15,0.01
15.4,0.01
15.8,0.01
16.2,0.01
16.5,0.01
16.9,0.01
17.4,0.01
17.8,0.01
18.2,0.01
18.7,0.01
19.1,0.01
19.6,0.01
20,0.01
20.5,0.01
21,0.01
21.5,0.01
22.1,0.01
22.6,0.01
23.2,0.01
23.7,0.01
24.3,0.01
24.9,0.01
25.5,0.01
26.1,0.01
26.7,0.01
27.4,0.01
28,0.01
28.7,0.01
29.4,0.01
30.1,0.01
30.9,0.01
31.6,0.01
32.4,0.01
33.2,0.01
34,0.01
34.8,0.01
35.7,0.01
36.5,0.01
37.4,0.01
38.3,0.01
39.2,0.01
40.2,0.01
41.2,0.01
42.2,0.01
43.2,0.01
44.2,0.01
45.2,0.01
46.4,0.01
47.5,0.01
48.7,0.01
49.9,0.01
51.1,0.01
52.3,0.01
53.6,0.01
54.9,0.01
56.2,0.01
57.6,0.01
59,0.01
60.4,0.01
61.9,0.01
63.4,0.01
64.9,0.01
66.5,0.01
68.1,0.01
69.8,0.01
71.5,0.01
73.2,0.01
75,0.01
76.8,0.01
78.7,0.01
80.6,0.01
82.5,0.01
84.5,0.01
86.6,0.01
88.7,0.01
90.9,0.01
93.1,0.01
95.3,0.01
97.6,0.01
100,0.01
102,0.01
105,0.01
107,0.01
110,0.01
113,0.01
115,0.01
118,0.01
121,0.01
124,0.01
127,0.01
130,0.01
133,0.01
137,0.01
140,0.01
143,0.01
147,0.01
150,0.01
154,0.01
158,0.01
162,0.01
165,0.01
169,0.01
174,0.01
178,0.01
182,0.01
187,0.01
191,0.01
196,0.01
200,0.01
205,0.01
210,0.01
215,0.01
221,0.01
226,0.01
232,0.01
237,0.01
243,0.01
249,0.01
255,0.01
261,0.01
267,0.01
274,0.01
280,0.01
287,0.01
294,0.01
301,0.01
309,0.01
316,0.01
324,0.01
332,0.01
340,0.01
348,0.01
357,0.01
365,0.01
374,0.01
383,0.01
392,0.01
402,0.01
412,0.01
422,0.01
432,0.01
442,0.01
452,0.01
464,0.01
475,0.01
487,0.01
499,0.01
511,0.01
523,0.01
536,0.01
549,0.01
562,0.01
576,0.01
590,0.01
604,0.01
619,0.01
634,0.01
649,0.01
665,0.01
681,0.01
698,0.01
715,0.01
732,0.01
750,0.01
768,0.01
787,0.01
806,0.01
825,0.01
845,0.01
866,0.01
887,0.01
909,0.01
931,0.01
953,0.01
976,0.01
1000,0.01
1020,0.01
1050,0.01
1070,0.01
1100,0.01
1130,0.01
1150,0.01
1180,0.01
1210,0.01
1240,0.01
1270,0.01
1300,0.01
1330,0.01
1370,0.01
1400,0.01
1430,0.01
1470,0.01
1500,0.01
1540,0.01
1580,0.01
1620,0.01
1650,0.01
1690,0.01
1740,0.01
1780,0.01
1820,0.01
1870,0.01
1910,0.01
1960,0.01
2000,0.01
2050,0.01
2100,0.01
2150,0.01
2210,0.01
2260,0.01
2320,0.01
2370,0.01
2430,0.01
2490,0.01
2550,0.01
2610,0.01
2670,0.01
2740,0.01
2800,0.01
2870,0.01
2940,0.01
3010,0.01
3090,0.01
3160,0.01
3240,0.01
3320,0.01
3400,0.01
3480,0.01
3570,0.01
3650,0.01
3740,0.01
3830,0.01
3920,0.01
4020,0.01
4120,0.01
4220,0.01
4320,0.01
4420,0.01
4520,0.01
4640,0.01
4750,0.01
4870,0.01
4990,0.01
5110,0.01
5230,0.01
5360,0.01
5490,0.01
5620,0.01
5760,0.01
5900,0.01
6040,0.01
6190,0.01
6340,0.01
6490,0.01
6650,0.01
6810,0.01
6980,0.01
7150,0.01
7320,0.01
7500,0.01
7680,0.01
7870,0.01
8060,0.01
8250,0.01
8450,0.01
8660,0.01
8870,0.01
9090,0.01
9310,0.01
9530,0.01
9760,0.01
10000,0.01
10200,0.01
10500,0.01
10700,0.01
11000,0.01
11300,0.01
11500,0.01
11800,0.01
12100,0.01
12400,0.01
12700,0.01
13000,0.01
13300,0.01
13700,0.01
14000,0.01
14300,0.01
14700,0.01
15000,0.01
15400,0.01
15800,0.01
16200,0.01
16500,0.01
16900,0.01
17400,0.01
17800,0.01
18200,0.01
18700,0.01
19100,0.01
19600,0.01
20000,0.01
20500,0.01
21000,0.01
21500,0.01
22100,0.01
22600,0.01
23200,0.01
23700,0.01
24300,0.01
24900,0.01
25500,0.01
26100,0.01
26700,0.01
27400,0.01
28000,0.01
28700,0.01
29400,0.01
30100,0.01
30900,0.01
31600,0.01
32400,0.01
33200,0.01
34000,0.01
34800,0.01
35700,0.01
36500,0.01
37400,0.01
38300,0.01
39200,0.01
40200,0.01
41200,0.01
42200,0.01
43200,0.01
44200,0.01
45200,0.01
46400,0.01
47500,0.01
48700,0.01
49900,0.01
51100,0.01
52300,0.01
53600,0.01
54900,0.01
56200,0.01
57600,0.01
59000,0.01
60400,0.01
61900,0.01
63400,0.01
64900,0.01
66500,0.01
68100,0.01
69800,0.01
71500,0.01
73200,0.01
75000,0.01
76800,0.01
78700,0.01
80600,0.01
82500,0.01
84500,0.01
86600,0.01
88700,0.01
90900,0.01
93100,0.01
95300,0.01
97600,0.01
100000,0.01
102000,0.01
105000,0.01
107000,0.01
110000,0.01
113000,0.01
115000,0.01
118000,0.01
121000,0.01
124000,0.01
127000,0.01
130000,0.01
133000,0.01
137000,0.01
140000,0.01
143000,0.01
147000,0.01
150000,0.01
154000,0.01
158000,0.01
162000,0.01
165000,0.01
169000,0.01
174000,0.01
178000,0.01
182000,0.01
187000,0.01
191000,0.01
196000,0.01
200000,0.01
205000,0.01
210000,0.01
215000,0.01
221000,0.01
226000,0.01
232000,0.01
237000,0.01
243000,0.01
249000,0.01
255000,0.01
261000,0.01
267000,0.01
274000,0.01
280000,0.01
287000,0.01
294000,0.01
301000,0.01
309000,0.01
316000,0.01
324000,0.01
332000,0.01
340000,0.01
348000,0.01
357000,0.01
365000,0.01
374000,0.01
383000,0.01
392000,0.01
402000,0.01
412000,0.01
422000,0.01
432000,0.01
442000,0.01
452000,0.01
464000,0.01
475000,0.01
487000,0.01
499000,0.01
511000,0.01
523000,0.01
536000,0.01
549000,0.01
562000,0.01
576000,0.01
590000,0.01
604000,0.01
619000,0.01
634000,0.01
649000,0.01
665000,0.01
681000,0.01
698000,0.01
715000,0.01
732000,0.01
750000,0.01
768000,0.01
787000,0.01
806000,0.01
825000,0.01
845000,0.01
866000,0.01
887000,0.01
909000,0.01
931000,0.01
953000,0.01
976000,0.01
1000000,0.01
1100000,0.01
1200000,0.01
1300000,0.01
1500000,0.01
1600000,0.01
1800000,0.01
2000000,0.01
2200000,0.01